Channel1(V)
1.95797
1.95729
1.95558
1.95558
1.95489
1.95353
1.95216
1.95148
1.95045
1.94977
1.94806
1.94738
1.94635
1.94532
1.9443
1.9443
1.94293
1.94156
1.94122
1.94088
1.94088
1.94054
1.93986
1.93986
1.93883
1.93815
1.93712
1.93678
1.93746
1.93746
1.93644
1.93575
1.93575
1.93575
1.93541
1.93541
1.93575
1.93575
1.93507
1.93473
1.93439
1.93473
1.93439
1.93439
1.93405
1.93575
1.93541
1.9361
1.9361
1.9361
1.93644
1.93644
1.9361
1.93712
1.9378
1.9378
1.9378
1.93746
1.93849
1.93849
1.93849
1.93883
1.93883
1.93883
1.93986
1.93986
1.9402
1.94054
1.94088
1.94122
1.94191
1.94225
1.94327
1.94362
1.94327
1.94396
1.9443
1.94464
1.94567
1.94567
1.94635
1.94601
1.94601
1.94635
1.94601
1.94635
1.94703
1.94738
1.94738
1.94703
1.94703
1.94772
1.94806
1.94874
1.94806
1.9484
1.94874
1.94943
1.95045
1.94977
1.94977
1.94977
1.95011
1.94908
1.94977
1.95011
1.95011
1.95045
1.95148
1.95284
1.95353
1.95421
1.95455
1.95489
1.95626
1.95695
1.95729
1.95763
1.95763
1.95831
1.95865
1.95968
1.96071
1.96207
1.96241
1.96412
1.96515
1.96583
1.96617
1.96686
1.96823
1.96891
1.96993
1.97164
1.97267
1.97335
1.97404
1.97574
1.97745
1.97848
1.97985
1.98121
1.98156
1.98361
1.98532
1.986
1.98702
1.98805
1.98873
1.98942
1.99044
1.99181
1.99283
1.99352
1.9942
1.99591
1.99659
1.99728
1.99865
1.99967
2.0007
2.00172
2.00206
2.00343
2.00411
2.00548
2.00582
2.00651
2.00719
2.0089
2.00958
2.01061
2.01163
2.013
2.01437
2.01539
2.01574
2.01744
2.01847
2.02018
2.02086
2.02223
2.02325
2.02428
2.02496
2.02599
2.02667
2.0277
2.02838
2.02872
2.03009
2.03112
2.03112
2.0318
2.03283
2.03317
2.03351
2.03453
2.03522
2.03556
2.0359
2.03693
2.03795
2.03898
2.03966
2.04034
2.04103
2.04205
2.04308
2.04445
2.04581
2.04616
2.04684
2.04752
2.04786
2.04889
2.04923
2.04992
2.05128
2.05231
2.05299
2.05436
2.05538
2.05641
2.05709
2.05778
2.05846
2.05983
2.06085
2.06085
2.06222
2.06393
2.06495
2.06598
2.06598
2.06735
2.06803
2.06906
2.07042
2.07042
2.07179
2.07316
2.07384
2.07418
2.07521
2.07555
2.07726
2.07863
2.07965
2.08068
2.0817
2.08273
2.08341
2.08375
2.08512
2.08683
2.08751
2.08854
2.08956
2.09025
2.09059
2.09127
2.09264
2.09367
2.09367
2.09469
2.09606
2.0964
2.09777
2.09811
2.09879
2.09982
2.10119
2.10221
2.10289
2.10358
2.10426
2.10529
2.10631
2.10665
2.107
2.10734
2.10802
2.10905
2.10939
2.11076
2.11246
2.11315
2.11383
2.11486
2.11554
2.11657
2.11725
2.11759
2.11828
2.11896
2.11964
2.11964
2.11998
2.12033
2.12135
2.12101
2.12204
2.12204
2.12101
2.12204
2.12272
2.12238
2.12306
2.1234
2.1234
2.1234
2.1234
2.12374
2.1234
2.12306
2.12306
2.12238
2.12204
2.12272
2.12204
2.12169
2.12169
2.12169
2.12169
2.12101
2.12067
2.12067
2.12033
2.11964
2.11964
2.1193
2.11828
2.11862
2.11828
2.11759
2.11691
2.11691
2.11657
2.11588
2.11486
2.11417
2.11383
2.11315
2.11178
2.11007
2.10939
2.1087
2.10802
2.10597
2.10495
2.10392
2.10358
2.10289
2.10153
2.1005
2.09982
2.09845
2.09674
2.09606
2.09503
2.09298
2.0923
2.09093
2.09025
2.08956
2.08786
2.08649
2.08512
2.08444
2.08375
2.08204
2.08136
2.08068
2.07863
2.07794
2.07658
2.07521
2.0735
2.07282
2.07179
2.07042
2.06871
2.06735
2.06701
2.06632
2.06564
2.06325
2.06222
2.06085
2.05949
2.05846
2.05778
2.05743
2.05675
2.05573
2.05402
2.05299
2.05333
2.05231
2.05128
2.0506
2.04923
2.04855
2.04889
2.04821
2.04752
2.04786
2.04684
2.04616
2.04581
2.04445
2.04513
2.04445
2.0441
2.0441
2.0441
2.04376
2.04376
2.04376
2.04376
2.0441
2.04342
2.04376
2.0441
2.04342
2.04308
2.04342
2.04308
2.04342
2.04308
2.04342
2.04274
2.0424
2.04205
2.04205
2.04171
2.0424
2.04205
2.04137
2.04171
2.04137
2.04103
2.04137
2.04137
2.04171
2.04069
2.04034
2.04069
2.04034
2.04
2.04
2.04
2.04034
2.03966
2.03898
2.03898
2.03898
2.03864
2.03761
2.03727
2.03659
2.0359
2.03556
2.03453
2.03385
2.03283
2.03214
2.03146
2.03112
2.03112
2.03077
2.03043
2.02907
2.02907
2.02872
2.02804
2.02736
2.02667
2.02633
2.02565
2.02531
2.02462
2.0236
2.02325
2.02291
2.02325
2.02291
2.02223
2.0212
2.02018
2.01984
2.01915
2.01847
2.01847
2.01676
2.01574
2.01505
2.01471
2.01403
2.013
2.01198
2.01095
2.01061
2.00924
2.00856
2.00753
2.00651
2.00548
2.0048
2.00343
2.00275
2.00138
2.0007
2.00035
1.99967
1.99865
1.99865
1.99796
1.99659
1.99557
1.99489
1.99454
1.99386
1.99249
1.99249
1.99113
1.99044
1.98942
1.98942
1.98907
1.98873
1.98907
1.98805
1.98702
1.98566
1.98497
1.98463
1.98463
1.98395
1.98326
1.98224
1.98258
1.9819
1.98087
1.97985
1.97882
1.97814
1.97848
1.97848
1.9778
1.97711
1.97643
1.97609
1.97609
1.97574
1.9754
1.97574
1.97609
1.97574
1.97506
1.97438
1.97438
1.97438
1.97404
1.97472
1.97404
1.97404
1.97404
1.97369
1.97301
1.97267
1.97233
1.97233
1.97198
1.97164
1.97233
1.97164
1.97164
1.97198
1.97198
1.9713
1.9713
1.9713
1.9713
1.97164
1.97164
1.97164
1.9713
1.97096
1.97062
1.96959
1.96925
1.96959
1.96857
1.96891
1.96925
1.96891
1.96891
1.96857
1.96823
1.96788
1.96754
1.96754
1.96857
1.96891
1.96925
1.96993
1.97062
1.97062
1.9713
1.97164
1.97198
1.97267
1.97267
1.97267
1.97267
1.97335
1.97438
1.97506
1.97574
1.97574
1.9754
1.97643
1.97643
1.97745
1.97814
1.97848
1.97882
1.9795
1.98019
1.98053
1.98156
1.98258
1.98292
1.98361
1.98395
1.98395
1.98463
1.98497
1.98566
1.986
1.98634
1.98702
1.98771
1.98839
1.98873
1.98873
1.9901
1.99181
1.99113
1.99147
1.99215
1.99215
1.99249
1.99318
1.99386
1.99523
1.99591
1.99591
1.99694
1.99728
1.99796
1.99933
1.99967
2.00035
2.00104
2.00206
2.00309
2.00377
2.00411
2.00514
2.00651
2.00719
2.00856
2.00924
2.01061
2.01198
2.01266
2.01403
2.01539
2.01676
2.01744
2.01813
2.01984
2.02155
2.02223
2.02394
2.02462
2.02565
2.02736
2.02872
2.03043
2.03077
2.03214
2.03488
2.03556
2.03693
2.03864
2.04
2.04103
2.0424
2.04308
2.04376
2.0441
2.04547
2.04718
2.04855
2.04992
2.05162
2.05231
2.05402
2.0547
2.05607
2.05743
2.05812
2.05949
2.06017
2.06119
2.06325
2.06461
2.06564
2.06598
2.06769
2.06871
2.07077
2.07145
2.07247
2.07316
2.07418
2.07589
2.07692
2.0776
2.07897
2.07931
2.08102
2.08204
2.08273
2.08444
2.0858
2.08751
2.08922
2.08991
2.09127
2.09161
2.0923
2.09367
2.09469
2.09572
2.09674
2.09777
2.09845
2.09982
2.10153
2.10255
2.10392
2.10426
2.10529
2.10563
2.10665
2.10802
2.1087
2.10939
2.11007
2.1111
2.11246
2.11349
2.11383
2.11554
2.11622
2.11691
2.11759
2.11862
2.11998
2.12067
2.12101
2.12238
2.12272
2.12409
2.12579
2.12614
2.12785
2.12853
2.12887
2.13024
2.13126
2.13195
2.13331
2.134
2.13537
2.13707
2.13844
2.13913
2.14015
2.14083
2.1422
2.14254
2.14323
2.14425
2.14494
2.14664
2.14801
2.14835
2.15006
2.15075
2.15211
2.1528
2.15382
2.15587
2.15656
2.15656
2.15758
2.15792
2.15895
2.15997
2.16066
2.161
2.16168
2.16168
2.16305
2.16442
2.16442
2.1651
2.16579
2.16647
2.16715
2.16749
2.16749
2.16784
2.16784
2.16784
2.16715
2.16749
2.16818
2.16818
2.16818
2.16852
2.16852
2.1692
2.16955
2.1692
2.1692
2.16886
2.16955
2.16955
2.17057
2.17125
2.17023
2.17057
2.17091
2.17091
2.17091
2.17125
2.17125
2.1716
2.1716
2.17057
2.1716
2.1716
2.17091
2.17023
2.16955
2.16886
2.16852
2.16784
2.16784
2.16715
2.16681
2.16681
2.16544
2.1651
2.16476
2.16373
2.16305
2.16237
2.16134
2.16134
2.16032
2.15929
2.15827
2.15724
2.15656
2.15587
2.15451
2.15416
2.1528
2.15211
2.15177
2.15109
2.14972
2.1487
2.14733
2.1463
2.14528
2.14459
2.14323
2.1422
2.14083
2.14015
2.13878
2.13742
2.13673
2.13537
2.13331
2.13195
2.13092
2.1299
2.12853
2.12682
2.12579
2.12511
2.12374
2.12272
2.12135
2.11896
2.11793
2.11588
2.11417
2.11246
2.11007
2.1087
2.10734
2.10495
2.10324
2.10187
2.09948
2.09811
2.09743
2.09572
2.09401
2.0923
2.09093
2.08922
2.08786
2.08615
2.08512
2.08375
2.08273
2.08204
2.08102
2.07931
2.07828
2.07794
2.07726
2.07623
2.07589
2.07487
2.07384
2.0735
2.07247
2.07145
2.07179
2.07111
2.07145
2.07179
2.07111
2.07077
2.06974
2.06871
2.06906
2.0694
2.06906
2.06837
2.06803
2.06837
2.06769
2.06735
2.06666
2.06598
2.06564
2.06598
2.0653
2.06427
2.06427
2.06427
2.06393
2.06325
2.06256
2.06222
2.06188
2.06119
2.06051
2.06051
2.05983
2.05949
2.05983
2.05812
2.05778
2.05675
2.05573
2.05538
2.05436
2.05402
2.05333
2.05231
2.05128
2.05026
2.04957
2.04855
2.04786
2.04684
2.04616
2.04513
2.04479
2.04445
2.0441
2.04376
2.04342
2.04308
2.04274
2.04205
2.04137
2.04103
2.04069
2.04034
2.03966
2.03966
2.03864
2.03829
2.03864
2.03864
2.03829
2.03864
2.03761
2.03761
2.03795
2.03761
2.03761
2.03727
2.03659
2.03659
2.03624
2.03624
2.03624
2.0359
2.0359
2.03556
2.03453
2.03385
2.03351
2.03317
2.03248
2.03248
2.03248
2.03283
2.03283
2.03248
2.0318
2.03248
2.03214
2.0318
2.0318
2.03248
2.0318
2.03248
2.03317
2.03351
2.03317
2.03351
2.03248
2.03214
2.03248
2.0318
2.03146
2.0318
2.03112
2.03214
2.03214
2.03283
2.03351
2.03317
2.03351
2.03419
2.03453
2.03522
2.03556
2.03624
2.03727
2.03761
2.03829
2.03829
2.03932
2.04
2.04
2.04069
2.04171
2.0424
2.04274
2.04308
2.0441
2.04445
2.04445
2.04581
2.04581
2.0465
2.04616
2.0465
2.04718
2.04752
2.04855
2.04889
2.04889
2.04923
2.04923
2.04889
2.04855
2.04889
2.04923
2.04957
2.04957
2.05026
2.0506
2.0506
2.05094
2.05162
2.05197
2.05231
2.05299
2.05299
2.05299
2.05368
2.05436
2.05504
2.05538
2.05538
2.05573
2.05538
2.05607
2.05641
2.05675
2.05778
2.05778
2.05812
2.0588
2.05914
2.05983
2.06119
2.06119
2.06325
2.06393
2.06427
2.0653
2.06598
2.06769
2.06906
2.0694
2.07042
2.07111
2.07145
2.07213
2.0735
2.07418
2.07487
2.07589
2.07692
2.07794
2.07897
2.08034
2.08068
2.0817
2.08273
2.08341
2.08478
2.08546
2.08649
2.08751
2.0882
2.08922
2.08956
2.09025
2.09093
2.09127
2.09161
2.09196
2.09264
2.09367
2.09469
2.09537
2.0964
2.09674
2.09743
2.09845
2.09948
2.09982
2.10119
2.10221
2.10255
2.10392
2.10529
2.10563
2.107
2.10768
2.10836
2.10905
2.11007
2.1111
2.11178
2.11315
2.11383
2.11452
2.11622
2.11759
2.11759
2.11896
2.12033
2.12169
2.1234
2.12409
2.12545
2.12648
2.12785
2.12921
2.13024
2.13161
2.13297
2.13434
2.13502
2.13605
2.13742
2.13913
2.14083
2.14186
2.14288
2.14357
2.14459
2.14596
2.14767
2.14904
2.1504
2.15177
2.15314
2.15451
2.15553
2.1569
2.15792
2.15929
2.16066
2.16168
2.16271
2.16476
2.16579
2.16715
2.1692
2.17057
2.17262
2.17433
2.17536
2.17741
2.17809
2.18014
2.18117
2.18288
2.18458
2.18629
2.188
2.18937
2.1904
2.1921
2.19415
2.19552
2.19723
2.19894
2.20031
2.20167
2.20304
2.20475
2.20612
2.20749
2.20919
2.21022
2.21159
2.2133
2.21535
2.21671
2.21808
2.21979
2.2215
2.22252
2.22389
2.22526
2.22628
2.22765
2.22902
2.23039
2.23175
2.23346
2.23517
2.2362
2.23756
2.23825
2.23961
2.24098
2.24167
2.24337
2.24406
2.24508
2.24679
2.24782
2.24953
2.25089
2.2526
2.25397
2.25431
2.255
2.25602
2.2567
2.25773
2.2591
2.25978
2.26081
2.26217
2.26251
2.26388
2.26525
2.26593
2.26764
2.26833
2.26833
2.26901
2.26935
2.26935
2.26969
2.27003
2.27072
2.27174
2.27174
2.27209
2.27311
2.27277
2.27345
2.27311
2.27345
2.27379
2.27414
2.27448
2.2755
2.27516
2.27585
2.27653
2.27653
2.2779
2.2779
2.27755
2.27824
2.27858
2.27892
2.2796
2.2796
2.27892
2.27926
2.27892
2.27858
2.27892
2.27858
2.27824
2.27858
2.27892
2.27892
2.27824
2.2779
2.27721
2.27653
2.27619
2.2755
2.27516
2.27482
2.27414
2.27379
2.27311
2.27209
2.27072
2.27038
2.27003
2.26935
2.26901
2.26901
2.26833
2.26867
2.26764
2.2673
2.26696
2.26593
2.26593
2.26559
2.26525
2.26457
2.26388
2.26388
2.2632
2.26251
2.26251
2.26149
2.26183
2.26115
2.26012
2.25978
2.2591
2.25876
2.25841
2.25773
2.25739
2.2567
2.25636
2.25636
2.25602
2.25602
2.25602
2.25568
2.25568
2.25568
2.255
2.255
2.25465
2.25363
2.25363
2.25294
2.25192
2.25192
2.25158
2.25124
2.25158
2.25021
2.24987
2.24884
2.24782
2.24748
2.24679
2.24611
2.24611
2.24542
2.24406
2.24337
2.24201
2.24098
2.2403
2.23893
2.23859
2.23756
2.2362
2.23585
2.23415
2.23346
2.23278
2.23175
2.23073
2.2297
2.22833
2.22765
2.22628
2.22628
2.22526
2.22355
2.22321
2.22218
2.22184
2.22082
2.22047
2.21945
2.21979
2.21876
2.2174
2.21774
2.21671
2.21603
2.21535
2.21466
2.21432
2.2133
2.21261
2.21193
2.21124
2.2109
2.20988
2.20954
2.20885
2.20817
2.20749
2.20714
2.20612
2.20509
2.20509
2.20407
2.20373
2.20304
2.20202
2.20133
2.20065
2.19997
2.19962
2.19894
2.19757
2.19723
2.19621
2.19552
2.19518
2.19484
2.19484
2.19484
2.19313
2.19279
2.1921
2.19074
2.1904
2.18937
2.18903
2.18834
2.18698
2.18664
2.18595
2.18493
2.18493
2.1839
2.18322
2.18288
2.18219
2.18185
2.18151
2.18082
2.18014
2.18014
2.17877
2.17843
2.17843
2.17741
2.17741
2.17638
2.1757
2.1757
2.1757
2.17467
2.17331
2.17228
2.17228
2.17125
2.17023
2.16955
2.16852
2.16818
2.16715
2.16715
2.16681
2.16579
2.16476
2.16339
2.16203
2.16168
2.16066
2.15997
2.15963
2.15895
2.15792
2.15724
2.15656
2.15553
2.15553
2.15485
2.15416
2.15314
2.1528
2.15211
2.15075
2.1504
2.14938
2.1487
2.14801
2.14699
2.14699
2.14664
2.14562
2.14528
2.14459
2.14391
2.14357
2.14254
2.14254
2.14152
2.14049
2.14015
2.13947
2.13913
2.13913
2.13878
2.13913
2.13878
2.1381
2.13776
2.13776
2.13707
2.13742
2.13776
2.13776
2.13776
2.13742
2.13673
2.13673
2.13605
2.13571
2.13571
2.13605
2.13502
2.13468
2.134
2.13366
2.13366
2.13331
2.13297
2.13263
2.13229
2.13161
2.13092
2.13024
2.13092
2.13058
2.13058
2.13092
2.13058
2.13058
2.1299
2.1299
2.13024
2.13092
2.13092
2.13092
2.13126
2.13092
2.13161
2.13058
2.13058
2.13024
2.13058
2.13058
2.13024
2.12955
2.12921
2.1299
2.12955
2.12853
2.12887
2.12853
2.12819
2.12819
2.12853
2.12887
2.12853
2.12921
2.12955
2.12955
2.13024
2.13092
2.13024
2.13058
2.13058
2.13161
2.13195
2.13195
2.13297
2.13331
2.13331
2.13366
2.13297
2.13331
2.134
2.13366
2.134
2.13331
2.13366
2.13468
2.13434
2.13434
2.134
2.13434
2.13434
2.13468
2.13537
2.13605
2.13571
2.13673
2.13673
2.13639
2.13673
2.13673
2.13673
2.13742
2.13742
2.13742
2.13844
2.13913
2.13913
2.13947
2.13913
2.13981
2.14015
2.14015
2.14152
2.14152
2.1422
2.14288
2.14323
2.14357
2.14425
2.14459
2.14494
2.14459
2.14459
2.14459
2.14459
2.14459
2.14528
2.14562
2.14562
2.14596
2.1463
2.14699
2.14664
2.14664
2.14699
2.14733
2.14767
2.14801
2.1487
2.1487
2.1487
2.1487
2.14938
2.15006
2.15006
2.15075
2.15143
2.15109
2.15143
2.15211
2.15246
2.15348
2.15348
2.15382
2.15416
2.15416
2.15485
2.15519
2.15553
2.1569
2.15758
2.15792
2.15895
2.15895
2.15997
2.16066
2.16134
2.16237
2.16203
2.16271
2.16373
2.16408
2.16544
2.16613
2.16647
2.16749
2.16784
2.16886
2.17023
2.17057
2.17125
2.17194
2.17331
2.17399
2.17433
2.17501
2.17638
2.17672
2.17809
2.17912
2.18014
2.18117
2.18185
2.18288
2.1839
2.18493
2.18664
2.18834
2.18937
2.1904
2.19142
2.19245
2.19415
2.19552
2.19552
2.19723
2.19791
2.19826
2.19928
2.20065
2.20202
2.2027
2.20338
2.20475
2.20578
2.20612
2.2068
2.20783
2.20851
2.20954
2.2109
2.21227
2.21398
2.21535
2.21706
2.21774
2.21911
2.21979
2.22116
2.22287
2.22389
2.22458
2.22628
2.22731
2.22868
2.2297
2.23073
2.23244
2.23278
2.23415
2.23517
2.23551
2.2362
2.23722
2.23791
2.23927
2.23961
2.2403
2.24132
2.24167
2.24167
2.24269
2.24337
2.24372
2.24406
2.2444
2.2444
2.24508
2.24542
2.24645
2.24748
2.24816
2.2485
2.24918
2.24987
2.25055
2.25158
2.25226
2.2526
2.25329
2.25363
2.25431
2.25465
2.255
2.25568
2.25602
2.25568
2.25568
2.25636
2.25636
2.25568
2.25602
2.25602
2.25568
2.25568
2.255
2.25431
2.25397
2.25329
2.25294
2.25226
2.25192
2.2526
2.25158
2.25158
2.25089
2.25021
2.24918
2.24884
2.24782
2.24713
2.24679
2.24577
2.24508
2.24474
2.24406
2.24406
2.24337
2.24235
2.24235
2.24167
2.24064
2.24098
2.23927
2.23961
2.23825
2.23791
2.23722
2.23688
2.23756
2.23756
2.23517
2.23415
2.23346
2.23244
2.23175
2.23175
2.23107
2.23073
2.23004
2.22833
2.22833
2.22697
2.22628
2.2256
2.22492
2.22321
2.22287
2.22252
2.22184
2.22013
2.21876
2.21876
2.2174
2.21706
2.21671
2.215
2.21432
2.21364
2.21159
2.2109
2.2109
2.21124
2.21056
2.20783
2.20646
2.20543
2.20475
2.20441
2.20407
2.20304
2.20167
2.20099
2.20031
2.19997
2.1986
2.19757
2.19689
2.1945
2.19415
2.19347
2.19279
2.19245
2.1921
2.19108
2.1904
2.19005
2.18903
2.188
2.18664
2.18527
2.18561
2.18493
2.18527
2.18527
2.18424
2.18288
2.18014
2.17843
2.17809
2.17775
2.17775
2.17741
2.17741
2.17672
2.17672
2.1757
2.17501
2.17399
2.17365
2.17296
2.17262
2.17228
2.17296
2.17365
2.17433
2.17331
2.17228
2.17125
2.17057
2.16955
2.16955
2.16749
2.16613
2.16544
2.16442
2.16442
2.16373
2.16271
2.16305
2.16408
2.16544
2.16579
2.16544
2.16408
2.16168
2.16032
2.16032
2.16032
2.161
2.16271
2.16237
2.16237
2.16203
2.15963
2.15792
2.15792
2.15929
2.16032
2.16032
2.16032
2.15929
2.15895
2.15895
2.15827
2.15519
2.15348
2.15177
2.15075
2.1504
2.15075
2.14972
2.15006
2.14904
2.14938
2.14904
2.1487
2.14835
2.1487
2.1504
2.15109
2.1504
2.14938
2.14664
2.14528
2.14459
2.1463
2.14528
2.14664
2.14664
2.1463
2.14562
2.14391
2.14083
2.13981
2.14049
2.14152
2.14083
2.13981
2.13947
2.1381
2.13707
2.13639
2.13468
2.13195
2.13024
2.1299
2.12819
2.12785
2.12716
2.12785
2.12785
2.12545
2.1234
2.12238
2.12204
2.12272
2.12477
2.12409
2.12409
2.12306
2.11964
2.11828
2.11896
2.12135
2.12033
2.11964
2.12101
2.12067
2.12033
2.11998
2.11725
2.11691
2.11862
2.12033
2.12101
2.12067
2.11964
2.11828
2.11691
2.11588
2.11554
2.11486
2.1152
2.1152
2.11588
2.11691
2.11657
2.11759
2.11793
2.11657
2.11554
2.11691
2.11725
2.11793
2.1193
2.11998
2.12033
2.1193
2.11691
2.11691
2.11725
2.11828
2.11793
2.1193
2.11964
2.11998
2.11964
2.11759
2.11622
2.11657
2.11862
2.11896
2.1193
2.11862
2.11622
2.11486
2.11486
2.11486
2.11486
2.1152
2.11554
2.11588
2.11691
2.11691
2.11793
2.11759
2.11691
2.11657
2.11657
2.11691
2.11725
2.11964
2.12135
2.12135
2.12101
2.11862
2.11793
2.1193
2.12135
2.12135
2.12204
2.12238
2.12272
2.12238
2.12101
2.12101
2.12238
2.12374
2.12477
2.12511
2.12477
2.12306
2.12204
2.12204
2.12169
2.12238
2.12374
2.12545
2.12477
2.12614
2.12443
2.12545
2.12477
2.12545
2.12477
2.12511
2.12648
2.12579
2.12716
2.12887
2.13058
2.13058
2.12921
2.1275
2.12819
2.13024
2.13092
2.13195
2.13195
2.13161
2.13297
2.13161
2.13092
2.13263
2.13537
2.13776
2.1381
2.13742
2.13707
2.13639
2.13673
2.13707
2.13878
2.14015
2.14254
2.1422
2.14391
2.14254
2.14288
2.14357
2.14391
2.14391
2.14425
2.14699
2.14733
2.14767
2.14972
2.15177
2.15246
2.15143
2.14972
2.14938
2.15246
2.15382
2.15451
2.15553
2.15451
2.15587
2.15519
2.15416
2.15622
2.15895
2.161
2.16168
2.16066
2.15997
2.16066
2.16066
2.16203
2.16339
2.16579
2.16852
2.16852
2.16886
2.16818
2.16852
2.16989
2.17091
2.17091
2.1716
2.17399
2.17399
2.17433
2.1757
2.17809
2.17912
2.17877
2.17775
2.17843
2.18185
2.18356
2.18458
2.18458
2.18527
2.18595
2.18595
2.18698
2.188
2.19108
2.19313
2.19347
2.19347
2.19279
2.19347
2.19552
2.19552
2.19655
2.19997
2.20133
2.2027
2.20167
2.20099
2.20202
2.20304
2.20441
2.20475
2.20612
2.20714
2.20714
2.20851
2.21159
2.2133
2.21398
2.21261
2.21193
2.21432
2.21671
2.21637
2.21637
2.21466
2.21466
2.21535
2.21603
2.21603
2.21876
2.22047
2.2215
2.22082
2.21911
2.21945
2.22047
2.21945
2.21979
2.22287
2.22423
2.22526
2.22389
2.22252
2.22252
2.22287
2.22287
2.22321
2.22389
2.22423
2.22458
2.22526
2.22868
2.2297
2.23004
2.22902
2.22765
2.23004
2.23141
2.23107
2.23073
2.22868
2.22868
2.22868
2.22902
2.22902
2.23073
2.23278
2.23312
2.23209
2.23004
2.23073
2.23107
2.22902
2.22902
2.23107
2.23141
2.23141
2.22936
2.22731
2.22663
2.22594
2.22526
2.22492
2.22355
2.22252
2.22252
2.22355
2.22423
2.22423
2.22287
2.22047
2.21842
2.21979
2.21945
2.21842
2.21569
2.21432
2.21261
2.21159
2.21124
2.21193
2.21295
2.21261
2.21124
2.20851
2.2068
2.20646
2.20475
2.20373
2.20543
2.20543
2.20509
2.20304
2.20065
2.1986
2.19723
2.19621
2.19552
2.1945
2.1945
2.19415
2.19518
2.19484
2.19415
2.1921
2.18834
2.18629
2.18664
2.18664
2.18664
2.1839
2.18253
2.18048
2.17877
2.17877
2.1798
2.17946
2.17775
2.17536
2.17228
2.17399
2.17194
2.17057
2.17091
2.17125
2.17194
2.16989
2.16784
2.16579
2.16476
2.16339
2.16339
2.16237
2.16237
2.16305
2.16373
2.16544
2.16476
2.16442
2.16237
2.161
2.161
2.16237
2.16271
2.16168
2.16066
2.15963
2.15792
2.1569
2.15827
2.15963
2.15895
2.15827
2.15553
2.15485
2.15519
2.15451
2.15143
2.15211
2.15314
2.15246
2.15109
2.14835
2.14733
2.1463
2.14562
2.14596
2.1463
2.14733
2.14801
2.14801
2.14699
2.14528
2.14254
2.14118
2.1422
2.14288
2.14391
2.14288
2.14323
2.14288
2.14118
2.14015
2.1422
2.14357
2.14357
2.1422
2.13947
2.13947
2.14083
2.13878
2.13707
2.13878
2.13981
2.13947
2.13742
2.13605
2.13502
2.134
2.13434
2.13537
2.1381
2.13981
2.14083
2.14083
2.13947
2.13776
2.1381
2.13844
2.13947
2.14083
2.14049
2.14118
2.14254
2.14083
2.13981
2.14118
2.14357
2.14425
2.14357
2.14118
2.14049
2.1422
2.14118
2.14049
2.14152
2.1422
2.14254
2.14152
2.14015
2.13981
2.14015
2.14049
2.13981
2.14186
2.14288
2.14254
2.14083
2.1381
2.13707
2.13913
2.13776
2.13776
2.13707
2.13571
2.13742
2.13844
2.13639
2.13434
2.13502
2.13639
2.13639
2.13468
2.13195
2.13263
2.13161
2.13092
2.12955
2.13092
2.13058
2.12853
2.12614
2.12511
2.12511
2.12443
2.12238
2.12443
2.12443
2.12443
2.12238
2.11862
2.11725
2.11896
2.11725
2.11588
2.11554
2.11452
2.11622
2.11725
2.11622
2.11246
2.11246
2.11452
2.11452
2.11315
2.11041
2.10939
2.10939
2.10802
2.10597
2.107
2.10836
2.10802
2.10495
2.10426
2.10563
2.10324
2.10324
2.10392
2.10426
2.10392
2.10084
2.09913
2.09982
2.10084
2.10084
2.09811
2.09777
2.09743
2.09879
2.09982
2.09811
2.09606
2.09845
2.10016
2.1005
2.09777
2.09503
2.09606
2.09503
2.09367
2.09469
2.09606
2.09606
2.09367
2.09332
2.09469
2.09367
2.09298
2.09503
2.09503
2.09435
2.0923
2.08991
2.08991
2.09196
2.09093
2.08854
2.08786
2.0882
2.0882
2.08854
2.08717
2.08751
2.08888
2.08991
2.08991
2.08922
2.08615
2.08512
2.0858
2.08512
2.08444
2.08444
2.08375
2.08273
2.08375
2.08375
2.08136
2.08239
2.08444
2.08512
2.0841
2.08136
2.07999
2.0817
2.08204
2.08273
2.08102
2.08034
2.07897
2.07863
2.07863
2.07897
2.08102
2.08239
2.08239
2.08239
2.08034
2.08034
2.07999
2.07965
2.08034
2.07999
2.07965
2.08034
2.08136
2.08102
2.08204
2.0841
2.08546
2.0858
2.08444
2.08239
2.08136
2.0817
2.08307
2.0841
2.08341
2.08341
2.08204
2.08034
2.07999
2.08068
2.08204
2.08375
2.08341
2.08273
2.08136
2.08068
2.08034
2.08068
2.08102
2.08273
2.08478
2.0841
2.08341
2.08512
2.08751
2.08991
2.08991
2.09025
2.08854
2.08717
2.08854
2.08956
2.09093
2.09367
2.09503
2.09606
2.09469
2.09401
2.09606
2.09879
2.10016
2.10084
2.10119
2.10187
2.10221
2.10221
2.10153
2.10358
2.10597
2.10631
2.10597
2.10665
2.10939
2.11212
2.11315
2.11349
2.11246
2.11178
2.11178
2.11178
2.11349
2.11622
2.11725
2.11793
2.11793
2.11657
2.11759
2.11964
2.12135
2.12238
2.12272
2.1234
2.12374
2.12272
2.12272
2.12238
2.12306
2.1234
2.12545
2.12614
2.12819
2.12921
2.12955
2.1299
2.1299
2.13058
2.13058
2.13126
2.13434
2.13605
2.13742
2.13707
2.13537
2.13571
2.13707
2.13844
2.13981
2.14049
2.14186
2.14254
2.1422
2.14186
2.1422
2.14288
2.14391
2.1463
2.1487
2.1504
2.15109
2.15143
2.1504
2.14938
2.14904
2.15006
2.15177
2.15416
2.15553
2.15553
2.15553
2.15382
2.15314
2.15451
2.15553
2.15656
2.15622
2.15622
2.15622
2.15587
2.15519
2.15519
2.15587
2.15622
2.15792
2.15861
2.15963
2.15997
2.15895
2.15758
2.15587
2.15485
2.15587
2.15724
2.15792
2.15792
2.15656
2.15485
2.15348
2.1528
2.15348
2.15382
2.15382
2.15348
2.15314
2.15246
2.15246
2.15177
2.15109
2.15143
2.15211
2.15314
2.15382
2.15382
2.15314
2.15177
2.14938
2.14801
2.14562
2.14425
2.14596
2.14699
2.14733
2.14664
2.14391
2.1422
2.14152
2.14083
2.14083
2.13981
2.13947
2.1381
2.13639
2.13571
2.13537
2.13468
2.13605
2.13673
2.13707
2.13707
2.13639
2.13502
2.13331
2.13058
2.12921
2.12955
2.13092
2.13161
2.13161
2.12887
2.12579
2.12443
2.12477
2.12409
2.12374
2.12238
2.12101
2.1193
2.11862
2.11793
2.11725
2.11691
2.11793
2.1193
2.11964
2.11964
2.1193
2.11759
2.1152
2.11315
2.11178
2.11281
2.11452
2.1152
2.11417
2.11246
2.11041
2.10973
2.10973
2.11007
2.11007
2.10836
2.10768
2.10734
2.107
2.10734
2.10734
2.10939
2.11076
2.1111
2.1111
2.11041
2.11007
2.10939
2.10836
2.107
2.10734
2.10836
2.10939
2.10939
2.10768
2.10597
2.10563
2.10529
2.10563
2.10563
2.10495
2.10529
2.10529
2.10631
2.10802
2.10939
2.11076
2.1111
2.11007
2.10939
2.10802
2.10665
2.10734
2.107
2.107
2.10836
2.1087
2.10939
2.10836
2.10665
2.10665
2.107
2.10768
2.107
2.10665
2.10631
2.107
2.10734
2.10939
2.1111
2.11144
2.1111
2.10939
2.10734
2.10665
2.10665
2.10665
2.107
2.10768
2.10905
2.1111
2.11007
2.10973
2.10768
2.10768
2.10802
2.10836
2.1087
2.10939
2.11076
2.11246
2.1152
2.11657
2.11793
2.11793
2.11691
2.11622
2.11588
2.11657
2.11828
2.11896
2.12067
2.12204
2.12306
2.12238
2.12238
2.12169
2.12238
2.12272
2.12272
2.1234
2.12306
2.12374
2.12579
2.12785
2.12853
2.12853
2.12819
2.12853
2.12682
2.12579
2.12477
2.12477
2.12545
2.12614
2.12819
2.12921
2.12921
2.12819
2.12648
2.12511
2.12545
2.12545
2.12579
2.12682
2.12716
2.12853
2.13024
2.13092
2.13092
2.13126
2.12921
2.12819
2.12819
2.1275
2.12716
2.12819
2.12819
2.13058
2.13092
2.13058
2.12955
2.12785
2.12716
2.12716
2.12682
2.12648
2.12716
2.1275
2.12921
2.13024
2.13058
2.13024
2.12921
2.12682
2.12545
2.12443
2.12374
2.12272
2.12238
2.1234
2.12579
2.12614
2.12579
2.12409
2.12169
2.12135
2.12101
2.11998
2.11998
2.11964
2.12135
2.12238
2.12238
2.12204
2.12101
2.11896
2.11691
2.11486
2.11246
2.1111
2.11076
2.11178
2.11212
2.11246
2.11076
2.10905
2.10734
2.10563
2.10563
2.10426
2.10392
2.10358
2.10426
2.10563
2.10665
2.10631
2.10597
2.10529
2.10358
2.10221
2.10084
2.10016
2.09913
2.09811
2.09845
2.10016
2.09948
2.09845
2.09606
2.09435
2.0923
2.0923
2.09127
2.09059
2.08991
2.09059
2.09161
2.09059
2.09059
2.08888
2.08717
2.08546
2.08375
2.0817
2.07999
2.07828
2.07726
2.07794
2.07828
2.07794
2.07589
2.0735
2.07247
2.07077
2.06974
2.06769
2.06632
2.06632
2.06666
2.06803
2.06871
2.06803
2.06666
2.06495
2.06359
2.06119
2.05949
2.05812
2.05675
2.05709
2.05846
2.05949
2.0588
2.05778
2.05573
2.05436
2.05333
2.05265
2.05162
2.05026
2.0506
2.05231
2.05333
2.05402
2.05299
2.05231
2.05231
2.05128
2.04957
2.04923
2.04718
2.04684
2.04855
2.04992
2.04992
2.04821
2.04718
2.04616
2.04479
2.0441
2.0441
2.0441
2.04513
2.04684
2.04821
2.04923
2.04992
2.05026
2.04992
2.04992
2.04957
2.04992
2.04855
2.04821
2.04957
2.05162
2.05402
2.0547
2.0547
2.05436
2.0547
2.05504
2.05504
2.05436
2.0547
2.05675
2.05949
2.06188
2.06325
2.06256
2.0629
2.0629
2.0629
2.06325
2.06256
2.06222
2.06427
2.06666
2.06906
2.07111
2.07042
2.07077
2.07145
2.07384
2.07452
2.07487
2.07555
2.0776
2.07999
2.08273
2.08375
2.08478
2.08615
2.08683
2.0882
2.08854
2.08854
2.08683
2.08751
2.08991
2.0923
2.09401
2.09401
2.09606
2.09674
2.09743
2.09811
2.09743
2.09811
2.09913
2.10153
2.10426
2.10597
2.10665
2.10734
2.10768
2.10836
2.1087
2.10802
2.10734
2.10768
2.10768
2.10973
2.11007
2.11076
2.11212
2.11178
2.11178
2.11178
2.11144
2.11212
2.11246
2.11383
2.11622
2.11828
2.11964
2.12033
2.11998
2.1193
2.1193
2.11862
2.11862
2.11828
2.11862
2.12033
2.12135
2.12272
2.12272
2.1234
2.12374
2.12409
2.12409
2.12409
2.12511
2.12648
2.12785
2.12853
2.1299
2.13092
2.13058
2.13058
2.12955
2.12853
2.12785
2.12785
2.12785
2.12887
2.1299
2.13024
2.13024
2.12921
2.12887
2.12887
2.12887
2.12887
2.1299
2.13058
2.13126
2.13195
2.13297
2.134
2.13366
2.13263
2.13161
2.13058
2.13092
2.13058
2.13058
2.13092
2.13126
2.13161
2.13195
2.13229
2.13263
2.13297
2.13297
2.134
2.13434
2.13434
2.13605
2.13673
2.13639
2.13707
2.13639
2.13673
2.13571
2.13571
2.13502
2.13502
2.13502
2.13468
2.13468
2.13502
2.13537
2.13502
2.13537
2.13571
2.13639
2.13639
2.13707
2.13776
2.13776
2.13913
2.13844
2.13878
2.13981
2.14015
2.13947
2.13947
2.13913
2.13947
2.13913
2.13947
2.13981
2.14015
2.13981
2.14015
2.14015
2.14015
2.14049
2.14049
2.14049
2.14118
2.14186
2.1422
2.14323
2.14357
2.14254
2.14323
2.14254
2.1422
2.14254
2.14254
2.1422
2.14323
2.14323
2.14357
2.14425
2.14494
2.14528
2.14494
2.14596
2.14664
2.1463
2.14664
2.14699
2.14801
2.14835
2.1487
2.14938
2.14972
2.14972
2.1504
2.15006
2.1504
2.1504
2.15075
2.15143
2.15177
2.15177
2.15246
2.15211
2.1528
2.1528
2.15348
2.15382
2.15485
2.15553
2.15622
2.15656
2.1569
2.15758
2.15758
2.15758
2.15827
2.15792
2.15827
2.15758
2.15827
2.15895
2.15929
2.15963
2.16032
2.161
2.16134
2.16237
2.16305
2.16339
2.16408
2.16408
2.16442
2.1651
2.16544
2.1651
2.16613
2.16715
2.16749
2.16749
2.16784
2.16818
2.16852
2.16852
2.1692
2.16955
2.17091
2.1716
2.1716
2.17228
2.17331
2.17331
2.17331
2.17331
2.17365
2.17399
2.17501
2.17501
2.17501
2.17501
2.1757
2.1757
2.1757
2.17638
2.17638
2.17706
2.17741
2.17843
2.17809
2.17809
2.1798
2.1798
2.18014
2.18117
2.18151
2.18253
2.18185
2.18219
2.18322
2.18356
2.18356
2.1839
2.1839
2.18458
2.18493
2.18493
2.18458
2.18493
2.18561
2.18493
2.18493
2.18527
2.18595
2.18629
2.18629
2.18629
2.18732
2.18834
2.18869
2.18869
2.18834
2.18937
2.18903
2.18937
2.18869
2.18903
2.18903
2.19005
2.19005
2.1904
2.19074
2.19108
2.19176
2.19108
2.1904
2.1904
2.19074
2.1904
2.1904
2.18903
2.18903
2.18903
2.18903
2.18937
2.18869
2.18834
2.18869
2.18732
2.18698
2.18595
2.18629
2.18629
2.18595
2.18527
2.18493
2.18458
2.18424
2.1839
2.18356
2.18288
2.18288
2.18151
2.18185
2.18014
2.17946
2.1798
2.17877
2.17843
2.17775
2.17672
2.17604
2.17501
2.17399
2.17331
2.17228
2.17194
2.17125
2.16989
2.1692
2.1692
2.16818
2.16579
2.16579
2.16476
2.16305
2.16237
2.16134
2.15997
2.15861
2.15827
2.1569
2.15519
2.15382
2.15211
2.15075
2.14904
2.14835
2.14699
2.14562
2.14459
2.14186
2.14152
2.14015
2.13878
2.13707
2.13537
2.13331
2.13263
2.1299
2.12921
2.12819
2.12477
2.12272
2.12101
2.1193
2.11759
2.11588
2.11349
2.11144
2.10939
2.10734
2.10529
2.10255
2.10084
2.09879
2.09606
2.09469
2.0923
2.08922
2.08717
2.08512
2.08307
2.08068
2.07794
2.07452
2.07111
2.06803
2.06735
2.06427
2.06085
2.05743
2.05436
2.05162
2.04992
2.04752
2.04547
2.04274
2.04137
2.03932
2.03829
2.03727
2.03556
2.03419
2.03283
2.03112
2.03043
2.02907
2.02838
2.02667
2.02565
2.02325
2.02257
2.0212
2.02018
2.02086
2.01847
2.01779
2.01676
2.01642
2.01471
2.013
2.01198
2.01061
2.01027
2.00958
2.0089
2.00822
2.00719
2.00616
2.00514
2.00411
2.00241
2.00138
2.00035
1.99899
1.9983
1.99694
1.99659
1.99694
1.99625
1.99523
1.99489
1.99454
1.99318
1.99318
1.99318
1.99454
1.99386
1.99283
1.99283
1.99249
1.99181
1.99181
1.99181
1.99215
1.99215
1.99181
1.99249
1.99386
1.99386
1.99489
1.99523
1.99557
1.99694
1.99694
1.9983
1.99899
2.0007
2.00309
2.00411
2.00548
2.00719
2.00787
2.00822
2.00924
2.01061
2.01095
2.01163
2.01266
2.01471
2.01642
2.01779
2.0195
2.0212
2.0212
2.02189
2.02291
2.02496
2.02599
2.02701
2.0277
2.02975
2.03043
2.03214
2.03351
2.03419
2.03556
2.03624
2.03761
2.03864
2.04034
2.04171
2.0424
2.04376
2.04479
2.04616
2.04786
2.04957
2.0506
2.05231
2.05436
2.05504
2.05675
2.05743
2.0588
2.06017
2.06119
2.06222
2.06427
2.06598
2.06735
2.06871
2.07008
2.07145
2.07247
2.07452
2.07623
2.07692
2.07863
2.08034
2.08204
2.08444
2.08717
2.08888
2.09025
2.0923
2.09469
2.0964
2.09913
2.1005
2.10221
2.1046
2.107
2.1087
2.11076
2.11246
2.11486
2.11725
2.11896
2.12135
2.12306
2.12545
2.12785
2.13024
2.13161
2.13366
2.13571
2.13776
2.14015
2.14152
2.14391
2.14562
2.14767
2.14972
2.15075
2.15211
2.15382
2.15587
2.15758
2.15963
2.16203
2.16442
2.16544
2.16749
2.16989
2.17194
2.17365
2.17604
2.17843
2.18048
2.18288
2.18458
2.18629
2.18834
2.18971
2.1921
2.19415
2.19586
2.19757
2.19894
2.20031
2.20236
2.20441
2.20612
2.20817
2.20988
2.21227
2.21364
2.21535
2.2174
2.21842
2.21979
2.22184
2.22389
2.2256
2.22697
2.22799
2.2297
2.23107
2.23244
2.23415
2.23483
2.23654
2.23859
2.23961
2.24132
2.24235
2.24406
2.24474
2.24542
2.24713
2.2485
2.24918
2.25055
2.25124
2.25226
2.25397
2.25568
2.25602
2.25739
2.25807
2.26012
2.26183
2.26286
2.26422
2.26525
2.26627
2.26764
2.26867
2.27038
2.27174
2.27311
2.27516
2.2755
2.27687
2.27755
2.27858
2.27926
2.28063
2.28166
2.28302
2.28439
2.28439
2.2861
2.28712
2.28747
2.28781
2.28815
2.28883
2.28918
2.28952
2.2902
2.29054
2.2902
2.29054
2.2902
2.28986
2.2902
2.28986
2.2902
2.28918
2.28918
2.28952
2.28883
2.28849
2.28849
2.28781
2.28747
2.28815
2.28849
2.28883
2.28883
2.28883
2.28986
2.28986
2.2902
2.29088
2.29157
2.29328
2.29499
2.29601
2.29738
2.2984
2.29977
2.30148
2.30319
2.30558
2.30729
2.309
2.31105
2.31344
2.31584
2.31823
2.32096
2.32336
2.32541
2.32746
2.32882
2.33087
2.33258
2.33463
2.33634
2.33771
2.33874
2.34079
2.34181
2.34352
2.34455
2.34523
2.34591
2.34694
2.34796
2.34899
2.34967
2.35036
2.35138
2.35138
2.35207
2.35241
2.35241
2.35275
2.35309
2.35343
2.35309
2.35309
2.35207
2.35172
2.35104
2.34967
2.34865
2.3466
2.34489
2.34318
2.3401
2.33771
2.33463
2.33087
2.32677
2.32199
2.3172
2.31242
2.30627
2.30045
2.29328
2.28542
2.2779
2.26867
2.2591
2.24884
2.23825
2.22594
2.21398
2.20065
2.18698
2.17296
2.15827
2.14288
2.12614
2.10973
2.09264
2.07384
2.05504
2.03659
2.01847
2.0007
1.9819
1.96276
1.94396
1.92482
1.9067
1.88859
1.87115
1.85543
1.84005
1.82501
1.81134
1.79835
1.78741
1.77716
1.76759
1.75836
1.74981
1.74127
1.73443
1.72931
1.72589
1.72042
1.71495
1.7088
1.70196
1.69513
1.68863
1.68214
1.67359
1.66505
1.65479
1.64557
1.63463
1.62403
1.61241
1.59908
1.58609
1.57447
1.56524
1.5567
1.54849
1.54098
1.53346
1.52525
1.51637
1.50816
1.50167
1.49586
1.4921
1.48834
1.48595
1.48287
1.48116
1.48013
1.47945
1.47808
1.47637
1.47501
1.47296
1.47125
1.46886
1.4668
1.46544
1.46441
1.46373
1.46304
1.46304
1.46236
1.46168
1.46236
1.46236
1.46236
1.46168
1.46099
1.46065
1.46031
1.46031
1.46099
1.46099
1.46134
1.46304
1.46407
1.46749
1.47227
1.47569
1.47911
1.48287
1.48731
1.49107
1.49552
1.50167
1.50885
1.51671
1.52594
1.53414
1.54337
1.55191
1.55977
1.56695
1.57379
1.57994
1.58643
1.59259
1.59976
1.60865
1.61993
1.63155
1.64249
1.65343
1.66231
1.6712
1.68043
1.68932
1.69854
1.70743
1.71871
1.72999
1.74161
1.75528
1.76998
1.78502
1.79835
1.81134
1.82467
1.83868
1.85372
1.86979
1.88619
1.90294
1.9214
1.9402
1.95831
1.97609
1.99352
2.01095
2.02633
2.04137
2.05607
2.07042
2.08478
2.09948
2.11383
2.12716
2.14083
2.1528
2.16373
2.17433
2.18458
2.19415
2.20338
2.21227
2.22047
2.22765
2.23483
2.24167
2.24782
2.25397
2.2591
2.26422
2.26867
2.27311
2.27721
2.28063
2.28371
2.28576
2.28712
2.28883
2.28883
2.28918
2.28986
2.28986
2.28952
2.28883
2.28815
2.28576
2.28473
2.282
2.2796
2.27619
2.27174
2.26764
2.26286
2.2567
2.25055
2.24372
2.23483
2.22663
2.21808
2.20885
2.19997
2.19108
2.18219
2.17399
2.16544
2.1569
2.14801
2.13844
2.12853
2.11862
2.10836
2.09708
2.08478
2.07247
2.06085
2.05094
2.0424
2.03419
2.02633
2.01984
2.01471
2.0089
2.00206
1.99557
1.98839
1.98121
1.97335
1.96515
1.95763
1.95011
1.94327
1.93541
1.92892
1.92311
1.91866
1.91422
1.9108
1.90738
1.90465
1.90055
1.89576
1.89064
1.88517
1.87867
1.87252
1.86671
1.8609
1.85577
1.85099
1.84791
1.84313
1.83732
1.83151
1.82433
1.81612
1.80826
1.80108
1.79322
1.7857
1.77818
1.77066
1.76383
1.75631
1.74913
1.74195
1.7358
1.72999
1.7235
1.71734
1.71153
1.70641
1.70299
1.7006
1.6982
1.69615
1.69308
1.69034
1.68829
1.68692
1.68692
1.68624
1.68521
1.68419
1.68282
1.68111
1.68145
1.68214
1.68351
1.68624
1.68897
1.69034
1.69171
1.69273
1.6941
1.69581
1.69718
1.69957
1.70162
1.70401
1.70538
1.70743
1.70948
1.71393
1.71871
1.72281
1.7276
1.73272
1.73819
1.74298
1.74776
1.75392
1.75904
1.76349
1.76827
1.77272
1.77579
1.77784
1.77989
1.77989
1.78092
1.78297
1.78468
1.78468
1.78399
1.78263
1.7816
1.78058
1.77853
1.77613
1.77306
1.77203
1.77066
1.76964
1.76896
1.76759
1.76622
1.76622
1.76622
1.76622
1.76622
1.76485
1.76315
1.76041
1.75904
1.75836
1.75802
1.75699
1.75528
1.75392
1.75152
1.74879
1.74537
1.74161
1.73717
1.73238
1.72862
1.72589
1.72247
1.71939
1.717
1.71529
1.71358
1.71051
1.70641
1.70333
1.70094
1.69923
1.69649
1.69308
1.68897
1.68351
1.67735
1.67188
1.66471
1.65821
1.65274
1.64727
1.64215
1.63805
1.63634
1.636
1.63805
1.6401
1.64317
1.64591
1.64864
1.65172
1.65582
1.66231
1.6712
1.68111
1.69205
1.70367
1.71563
1.72794
1.73956
1.7505
1.76144
1.77066
1.78024
1.78912
1.79903
1.80792
1.81681
1.82433
1.83287
1.84073
1.84825
1.85441
1.85885
1.86227
1.86398
1.86398
1.86193
1.85817
1.85372
1.84825
1.84278
1.83595
1.82809
1.81783
1.80553
1.79151
1.77579
1.76041
1.74435
1.7276
1.71017
1.69137
1.67018
1.64762
1.62608
1.60387
1.58267
1.56353
1.54542
1.52833
1.51226
1.49586
1.47979
1.46236
1.44561
1.43023
1.41759
1.40631
1.39742
1.39127
1.38614
1.38204
1.3793
1.37828
1.37691
1.37657
1.37725
1.37896
1.38067
1.38409
1.38853
1.39605
1.4046
1.41417
1.42545
1.43775
1.44937
1.46099
1.47193
1.48048
1.48765
1.49586
1.50474
1.51431
1.52491
1.53653
1.54849
1.55909
1.57003
1.57926
1.5878
1.59635
1.60489
1.61241
1.61822
1.62437
1.62916
1.63189
1.63531
1.6377
1.63907
1.64112
1.6442
1.64625
1.64864
1.65001
1.65172
1.65343
1.65582
1.65821
1.66095
1.66471
1.66881
1.67291
1.67872
1.68487
1.69103
1.69718
1.70333
1.70948
1.71563
1.7211
1.72589
1.73102
1.73683
1.74298
1.74845
1.75528
1.76144
1.76861
1.77579
1.78365
1.79117
1.79869
1.80553
1.81236
1.81817
1.82501
1.83185
1.838
1.84518
1.85304
1.8609
1.86774
1.87423
1.87902
1.88346
1.88756
1.89166
1.89474
1.89713
1.89884
1.89987
1.90021
1.90055
1.90192
1.90226
1.90192
1.90192
1.90226
1.90123
1.90055
1.8985
1.89611
1.89269
1.88824
1.88312
1.87696
1.87013
1.86363
1.8568
1.84894
1.83937
1.83048
1.82125
1.81202
1.8004
1.78775
1.77511
1.7628
1.7505
1.73854
1.72589
1.71358
1.70299
1.69171
1.68248
1.67291
1.66471
1.65753
1.65103
1.64659
1.64352
1.64249
1.6442
1.6483
1.65343
1.65992
1.6671
1.6753
1.68385
1.6941
1.70572
1.71734
1.72862
1.74024
1.75084
1.76246
1.7734
1.78331
1.79254
1.80245
1.81236
1.82364
1.83321
1.8421
1.85065
1.85885
1.86637
1.87457
1.88209
1.88927
1.89713
1.90568
1.91525
1.92379
1.93234
1.94054
1.94806
1.95558
1.96378
1.9713
1.97882
1.98702
1.99489
2.00172
2.00822
2.01368
2.01847
2.02189
2.02496
2.02872
2.03112
2.03488
2.03829
2.04103
2.0441
2.04684
2.04923
2.05197
2.05299
2.0547
2.05709
2.05949
2.06222
2.06564
2.0694
2.07452
2.07965
2.0858
2.09161
2.0964
2.10119
2.10597
2.1111
2.11622
2.12135
2.12614
2.13195
2.13707
2.13981
2.14254
2.14494
2.14699
2.14904
2.15143
2.15416
2.15724
2.15997
2.16203
2.16305
2.16408
2.16579
2.16647
2.16749
2.16749
2.16681
2.16613
2.16579
2.16373
2.16271
2.16305
2.16339
2.16544
2.16613
2.16613
2.16613
2.16579
2.16647
2.16715
2.16647
2.16681
2.16818
2.16955
2.1716
2.17228
2.17331
2.17536
2.17706
2.17946
2.18185
2.18322
2.18561
2.18903
2.19142
2.19484
2.19791
2.20099
2.20338
2.20578
2.20749
2.21056
2.21193
2.21398
2.21535
2.21466
2.215
2.215
2.21535
2.21603
2.21637
2.21535
2.2133
2.2109
2.20919
2.20885
2.20954
2.21124
2.21364
2.21466
2.21637
2.21569
2.21671
2.21774
2.22082
2.22355
2.2256
2.22765
2.2297
2.23278
2.23415
2.23449
2.2338
2.23278
2.23039
2.22731
2.22355
2.21808
2.21364
2.20988
2.20509
2.19962
2.19484
2.18971
2.18527
2.1798
2.17331
2.16818
2.16339
2.15997
2.1569
2.1528
2.14938
2.14562
2.1422
2.13947
2.13673
2.13331
2.13058
2.12785
2.12648
2.12648
2.12716
2.12819
2.1299
2.13229
2.13331
2.13331
2.13024
2.12682
2.12374
2.12033
2.11725
2.11383
2.11007
2.10768
2.10426
2.09913
2.09298
2.08478
2.07589
2.06735
2.05675
2.04547
2.03488
2.02633
2.0195
2.01232
2.00241
1.99249
1.9819
1.97096
1.95934
1.94703
1.93575
1.92653
1.91901
1.90978
1.89918
1.88859
1.87833
1.86876
1.85748
1.84449
1.83048
1.8151
1.80074
1.78741
1.77442
1.76144
1.74811
1.73512
1.7211
1.70572
1.68897
1.67154
1.65616
1.64078
1.62711
1.61378
1.60147
1.59088
1.58131
1.57105
1.56012
1.54918
1.54098
1.5338
1.52628
1.51807
1.50953
1.50235
1.49928
1.4962
1.49176
1.48663
1.48253
1.47877
1.47296
1.4668
1.46339
1.46236
1.46304
1.46304
1.46168
1.46065
1.46031
1.46134
1.46236
1.46236
1.4627
1.46236
1.46373
1.46578
1.46851
1.4733
1.47945
1.48731
1.49415
1.5003
1.50338
1.50816
1.51226
1.51842
1.52594
1.5338
1.54268
1.5526
1.56422
1.57413
1.58302
1.59122
1.59771
1.60558
1.61378
1.62335
1.63224
1.6401
1.64693
1.65479
1.663
1.67154
1.68043
1.68932
1.69786
1.70401
1.70743
1.71222
1.71837
1.72623
1.73478
1.74298
1.74913
1.75528
1.76178
1.76759
1.77272
1.77784
1.78263
1.78741
1.79254
1.79869
1.8069
1.81647
1.82399
1.8298
1.83321
1.83697
1.84176
1.84757
1.85372
1.85919
1.86398
1.86569
1.86637
1.86774
1.87115
1.87286
1.87423
1.87286
1.87047
1.86774
1.86671
1.86534
1.86158
1.85782
1.85406
1.85099
1.84757
1.84552
1.84347
1.84005
1.83629
1.83424
1.83287
1.83219
1.83321
1.83458
1.83732
1.84108
1.84552
1.85065
1.85714
1.86329
1.86944
1.87594
1.88243
1.89098
1.90055
1.91046
1.92106
1.93063
1.93951
1.94601
1.95455
1.96276
1.97062
1.97814
1.98566
1.99215
1.9983
2.00548
2.01095
2.01676
2.02257
2.02975
2.03522
2.03898
2.04342
2.04923
2.05504
2.06154
2.0694
2.07487
2.08034
2.08683
2.09332
2.09948
2.10631
2.11417
2.12169
2.12853
2.13434
2.13913
2.14528
2.15314
2.15929
2.16613
2.17228
2.17706
2.18219
2.18595
2.18937
2.19108
2.19142
2.19176
2.19176
2.1921
2.19245
2.19279
2.1921
2.19005
2.18698
2.18185
2.17672
2.17057
2.16476
2.15861
2.15109
2.14186
2.13263
2.12306
2.1111
2.09982
2.08717
2.07658
2.06359
2.04957
2.03659
2.02189
2.00616
1.9901
1.97301
1.95489
1.93678
1.91901
1.90123
1.88312
1.86363
1.84347
1.82228
1.80108
1.78092
1.76007
1.73854
1.71632
1.69342
1.67257
1.65309
1.63258
1.61344
1.59293
1.57071
1.54679
1.52354
1.50133
1.4815
1.46441
1.44937
1.43502
1.41964
1.40323
1.38648
1.36734
1.35059
1.33419
1.31675
1.30206
1.28531
1.2689
1.25352
1.23985
1.2231
1.20601
1.18721
1.16807
1.14722
1.12671
1.10791
1.0898
1.07305
1.0563
1.04058
1.02007
0.999222
0.980081
0.96094
0.942483
0.926077
0.911038
0.897707
0.883694
0.86968
0.857375
0.846437
0.837209
0.830031
0.825246
0.819093
0.813625
0.808498
0.805763
0.803712
0.801662
0.799953
0.797902
0.795851
0.795167
0.797218
0.802345
0.81089
0.822853
0.834133
0.843703
0.852932
0.861477
0.870363
0.880959
0.893606
0.90762
0.92095
0.934622
0.94761
0.959915
0.971536
0.984183
0.995804
1.0064
1.01802
1.03101
1.044
1.0563
1.07032
1.08501
1.09664
1.1086
1.1233
1.1397
1.15645
1.1732
1.19063
1.2084
1.22686
1.24566
1.2648
1.28531
1.30718
1.32974
1.35504
1.37999
1.4046
1.42852
1.45313
1.47774
1.50098
1.52354
1.54576
1.569
1.59156
1.61446
1.63702
1.65855
1.68009
1.69991
1.72179
1.74161
1.76109
1.78024
1.79903
1.81852
1.83732
1.85782
1.87696
1.8944
1.91183
1.92926
1.94772
1.96412
1.98053
1.99659
2.013
2.02907
2.04513
2.06085
2.07726
2.09264
2.10734
2.1193
2.13161
2.14391
2.15451
2.16373
2.17296
2.18082
2.18937
2.19655
2.2027
2.20885
2.21398
2.21774
2.22218
2.2256
2.22902
2.23107
2.23346
2.23483
2.23517
2.23585
2.2362
2.23415
2.23244
2.23073
2.22936
2.22765
2.22663
2.22458
2.22252
2.22013
2.21774
2.215
2.21124
2.20885
2.20578
2.2027
2.19928
2.19621
2.1921
2.18834
2.18493
2.18151
2.17775
2.17228
2.16784
2.16237
2.15861
2.15451
2.15006
2.14733
2.14391
2.14118
2.13605
2.13161
2.12785
2.12545
2.12135
2.1193
2.11691
2.11417
2.11178
2.10905
2.107
2.10529
2.10358
2.10289
2.10289
2.10187
2.10119
2.09982
2.09811
2.09708
2.09572
2.09367
2.09059
2.08786
2.0858
2.0841
2.08273
2.08204
2.08068
2.07897
2.07692
2.07452
2.07384
2.07282
2.07213
2.07145
2.06974
2.06803
2.06598
2.06427
2.06222
2.06154
2.05949
2.05846
2.05812
2.05504
2.05333
2.05162
2.04957
2.04786
2.0465
2.04547
2.04547
2.04445
2.04137
2.03898
2.03659
2.03419
2.03214
2.03009
2.02804
2.02667
2.02428
2.02257
2.0212
2.01915
2.01779
2.01642
2.01505
2.01334
2.01266
2.01061
2.00822
2.00651
2.00411
2.00104
1.99865
1.99557
1.99181
1.98873
1.98668
1.98463
1.98156
1.97916
1.97609
1.97438
1.9713
1.96857
1.96549
1.96276
1.96036
1.95763
1.95524
1.95284
1.94977
1.94635
1.94327
1.94054
1.93815
1.93473
1.93165
1.92926
1.9255
1.92345
1.92071
1.91764
1.91661
1.91525
1.91251
1.90944
1.9067
1.90397
1.90089
1.89816
1.89611
1.89337
1.89098
1.88995
1.8879
1.88619
1.88483
1.88278
1.88107
1.88004
1.8797
1.87902
1.87867
1.87765
1.87662
1.87457
1.87286
1.87115
1.86808
1.865
1.86398
1.86158
1.85987
1.85851
1.85782
1.85714
1.85543
1.85372
1.85235
1.85065
1.85065
1.84962
1.84791
1.84757
1.8462
1.84586
1.84415
1.84313
1.84278
1.84142
1.84039
1.83902
1.838
1.83663
1.83629
1.83458
1.83356
1.83321
1.83424
1.83321
1.83116
1.8298
1.82877
1.8274
1.82535
1.82433
1.82364
1.82364
1.82296
1.82228
1.82159
1.82057
1.81954
1.81817
1.81749
1.81749
1.81783
1.81783
1.81817
1.81783
1.81647
1.81544
1.81339
1.81134
1.80895
1.8069
1.8045
1.80348
1.80279
1.80245
1.80177
1.80177
1.8004
1.79869
1.79767
1.79664
1.79664
1.79596
1.79596
1.79527
1.79493
1.79425
1.79425
1.79357
1.7922
1.79117
1.79049
1.78981
1.78878
1.78844
1.78775
1.78741
1.78673
1.78775
1.7881
1.78673
1.78536
1.78399
1.78229
1.7816
1.77989
1.77818
1.77818
1.77716
1.77545
1.77374
1.77169
1.77101
1.77032
1.7693
1.76896
1.76896
1.76861
1.76827
1.76759
1.76554
1.76485
1.76349
1.76075
1.75768
1.75494
1.75323
1.75221
1.75289
1.75255
1.75187
1.7505
1.74947
1.74845
1.74708
1.74606
1.74469
1.74332
1.74264
1.74195
1.74264
1.74161
1.74059
1.73956
1.7399
1.73922
1.73888
1.73956
1.7399
1.7399
1.73956
1.74024
1.74024
1.74093
1.74195
1.7423
1.74161
1.74161
1.74195
1.74093
1.74127
1.74127
1.74059
1.74093
1.74127
1.74127
1.74161
1.74024
1.7399
1.73956
1.73956
1.74024
1.74161
1.74366
1.74435
1.74503
1.74503
1.74503
1.74435
1.74264
1.74127
1.73956
1.73819
1.73785
1.73683
1.73717
1.73785
1.73717
1.73751
1.73751
1.73648
1.73546
1.73443
1.73375
1.73341
1.73375
1.73341
1.73307
1.73204
1.7317
1.73102
1.73102
1.73067
1.72828
1.72691
1.72657
1.72657
1.72589
1.72623
1.72589
1.72486
1.72452
1.72555
1.72589
1.72452
1.72384
1.72247
1.72145
1.72145
1.72042
1.71905
1.71837
1.71837
1.71837
1.71769
1.717
1.71598
1.71529
1.71563
1.71598
1.717
1.71803
1.71769
1.71666
1.71632
1.71461
1.7129
1.71153
1.71017
1.70812
1.70675
1.70641
1.70606
1.70538
1.70538
1.70504
1.70401
1.70333
1.70265
1.7023
1.70196
1.70128
1.70128
1.70128
1.70025
1.7006
1.69991
1.69991
1.69923
1.69923
1.6982
1.6982
1.69786
1.69786
1.6982
1.69889
1.69923
1.69957
1.69957
1.7006
1.7006
1.7006
1.70025
1.69991
1.69991
1.69923
1.69923
1.69854
1.69889
1.70025
1.7006
1.70094
1.70094
1.70162
1.7023
1.70265
1.70333
1.70538
1.70641
1.70675
1.70709
1.70641
1.70606
1.70709
1.70606
1.70436
1.70401
1.70367
1.70401
1.70504
1.70572
1.70606
1.70606
1.70709
1.70641
1.70641
1.70675
1.70675
1.70709
1.70709
1.70777
1.70777
1.70812
1.70812
1.7088
1.70846
1.70846
1.70846
1.7088
1.70948
1.71051
1.71119
1.71153
1.71188
1.71222
1.7129
1.71324
1.71324
1.71256
1.71222
1.71256
1.7129
1.7129
1.71324
1.71324
1.71358
1.71256
1.71256
1.71324
1.71358
1.71495
1.71598
1.71632
1.71666
1.71769
1.71769
1.71734
1.71734
1.71598
1.71461
1.71324
1.71256
1.71188
1.71085
1.71085
1.71017
1.70982
1.70982
1.7088
1.70812
1.70777
1.70709
1.70606
1.70606
1.70504
1.7047
1.7047
1.70367
1.70367
1.70265
1.70196
1.70094
1.69991
1.69991
1.69923
1.6982
1.69718
1.69581
1.69444
1.69342
1.69308
1.69171
1.69034
1.68897
1.68727
1.68624
1.68556
1.68385
1.68248
1.68077
1.68043
1.67975
1.67872
1.6777
1.67735
1.67633
1.67496
1.67428
1.67462
1.67428
1.67291
1.67154
1.66983
1.66812
1.66642
1.66471
1.663
1.66129
1.65992
1.65924
1.65855
1.65855
1.65787
1.65719
1.65753
1.65685
1.65616
1.65582
1.65445
1.65343
1.65274
1.65274
1.65206
1.65103
1.64967
1.64898
1.6483
1.6483
1.64796
1.64693
1.64659
1.64522
1.64522
1.64454
1.64352
1.64215
1.64078
1.6401
1.63941
1.63736
1.63668
1.63565
1.63394
1.63292
1.63189
1.63018
1.62916
1.62848
1.62745
1.62643
1.62711
1.62677
1.62643
1.62608
1.62574
1.62677
1.62574
1.62506
1.62403
1.62301
1.62198
1.62061
1.61993
1.61925
1.61788
1.61685
1.61685
1.61617
1.61583
1.61515
1.61412
1.61344
1.61309
1.61309
1.61275
1.61275
1.61309
1.61344
1.61378
1.61515
1.61583
1.61685
1.6172
1.61822
1.61959
1.62061
1.62198
1.62335
1.62369
1.62472
1.62608
1.62608
1.62643
1.62677
1.62677
1.62745
1.62779
1.62848
1.6295
1.63018
1.63155
1.63258
1.63326
1.63394
1.63531
1.636
1.63702
1.63839
1.63976
1.64112
1.64215
1.64317
1.64386
1.64454
1.64557
1.64625
1.64693
1.64693
1.6483
1.64933
1.65035
1.65069
1.65172
1.65206
1.65309
1.65343
1.65445
1.6565
1.65719
1.65855
1.65958
1.66095
1.66163
1.66266
1.66368
1.66436
1.66539
1.6671
1.66778
1.66915
1.67086
1.67223
1.67428
1.67564
1.67701
1.67838
1.67975
1.68077
1.68248
1.68316
1.68419
1.68487
1.68521
1.68727
1.68761
1.68795
1.68863
1.68932
1.69034
1.69137
1.69205
1.69376
1.69513
1.69547
1.69615
1.69649
1.69718
1.69786
1.69786
1.69752
1.69752
1.69752
1.6982
1.6982
1.6982
1.69854
1.6982
1.69786
1.69854
1.69786
1.6982
1.69854
1.6982
1.69854
1.69923
1.69889
1.69923
1.70025
1.7006
1.70094
1.70094
1.70094
1.70162
1.70128
1.70299
1.70401
1.70333
1.70436
1.70401
1.70367
1.7047
1.7047
1.70436
1.70436
1.70436
1.70401
1.70436
1.70367
1.70299
1.70196
1.70162
1.70094
1.7006
1.7006
1.70094
1.70025
1.69923
1.69889
1.69889
1.69854
1.69752
1.69684
1.69615
1.69615
1.69513
1.69479
1.69444
1.69513
1.69513
1.69444
1.6941
1.6941
1.69342
1.69239
1.69239
1.69205
1.69137
1.69171
1.69137
1.69068
1.68932
1.68897
1.68863
1.68795
1.68761
1.68658
1.68487
1.68487
1.68487
1.68487
1.68351
1.68282
1.6818
1.68077
1.68077
1.68009
1.67975
1.67906
1.67804
1.67701
1.67667
1.67599
1.67496
1.67428
1.67359
1.67257
1.67188
1.66983
1.66881
1.66847
1.66744
1.66607
1.66505
1.66505
1.66402
1.66334
1.66266
1.66231
1.66129
1.66129
1.66095
1.66061
1.66095
1.66095
1.66061
1.66095
1.66061
1.66061
1.66129
1.66163
1.66163
1.66231
1.66231
1.663
1.66334
1.66368
1.66402
1.66334
1.66368
1.66368
1.66402
1.66368
1.66402
1.66402
1.66402
1.66471
1.66505
1.66505
1.66471
1.66471
1.66471
1.66471
1.66471
1.66471
1.66471
1.66436
1.66436
1.66368
1.663
1.663
1.66334
1.66231
1.66197
1.66163
1.66163
1.66026
1.65992
1.65958
1.6589
1.6589
1.65855
1.6589
1.65753
1.65821
1.65924
1.65855
1.65719
1.65582
1.65479
1.65445
1.65514
1.6565
1.65582
1.65514
1.65514
1.65514
1.65479
1.65753
1.6565
1.6565
1.65616
1.65685
1.65855
1.65855
1.66026
1.65992
1.66061
1.66129
1.66129
1.66266
1.66368
1.66368
1.66402
1.66368
1.66402
1.66471
1.66505
1.66676
1.66642
1.66573
1.66676
1.66744
1.66778
1.66915
1.67086
1.67086
1.67052
1.67086
1.6712
1.67086
1.6712
1.67223
1.67257
1.67325
1.67394
1.67394
1.67428
1.6753
1.67599
1.67701
1.67804
1.6794
1.67975
1.68009
1.6818
1.68214
1.68351
1.68453
1.68521
1.68521
1.68624
1.68692
1.68692
1.68692
1.68727
1.68897
1.68932
1.68932
1.69103
1.69068
1.69137
1.69205
1.69342
1.69376
1.69581
1.69513
1.69547
1.69649
1.69649
1.69649
1.69718
1.6982
1.69957
1.7006
1.70094
1.70162
1.70196
1.70367
1.70436
1.70504
1.70606
1.70777
1.70812
1.70982
1.71051
1.71153
1.71188
1.7129
1.71393
1.71427
1.71529
1.71563
1.71666
1.717
1.71734
1.71905
1.71905
1.71871
1.71905
1.72076
1.72213
1.72213
1.72281
1.72179
1.72213
1.72452
1.72452
1.72589
1.72486
1.72555
1.72555
1.72657
1.72555
1.72623
1.72794
1.72965
1.72999
1.72931
1.72931
1.72965
1.72897
1.72931
1.72897
1.72965
1.72965
1.72965
1.72999
1.73067
1.73238
1.73238
1.73272
1.73512
1.73512
1.73546
1.7358
1.73614
1.73717
1.73751
1.73785
1.73819
1.73785
1.73854
1.73888
1.73922
1.73956
1.74161
1.74127
1.74161
1.74195
1.74264
1.74366
1.744
1.744
1.74469
1.74537
1.74537
1.74674
1.74708
1.74708
1.7464
1.74469
1.74537
1.74537
1.74708
1.74742
1.74811
1.74776
1.74776
1.74879
1.74811
1.74776
1.74913
1.74913
1.74845
1.74776
1.74845
1.74845
1.74811
1.7464
1.74708
1.7464
1.74674
1.74503
1.74537
1.744
1.74264
1.7423
1.73922
1.73785
1.73648
1.73717
1.73614
1.73512
1.73443
1.73307
1.73204
1.7317
1.73033
1.72931
1.72965
1.72862
1.7276
1.72726
1.72555
1.72418
1.72315
1.72247
1.7211
1.72042
1.71974
1.71837
1.71769
1.71769
1.71666
1.71563
1.71393
1.71461
1.71427
1.71393
1.71324
1.71256
1.71153
1.70948
1.70982
1.70982
1.70914
1.70777
1.70675
1.7047
1.70367
1.70196
1.70128
1.70025
1.69923
1.69854
1.69649
1.69649
1.69615
1.69513
1.69547
1.69513
1.69376
1.69308
1.69239
1.69239
1.69103
1.68966
1.69
1.69068
1.69034
1.68932
1.68966
1.68897
1.69034
1.68966
1.68863
1.68932
1.69068
1.69
1.69137
1.69103
1.69239
1.6941
1.69444
1.69649
1.69786
1.69889
1.70025
1.7006
1.70265
1.70538
1.70606
1.70812
1.70914
1.71017
1.7129
1.71358
1.71324
1.71461
1.71632
1.71837
1.72042
1.72213
1.72247
1.72281
1.72521
1.72623
1.72589
1.72691
1.72862
1.73033
1.73204
1.73341
1.73307
1.73409
1.73409
1.73478
1.73614
1.73785
1.7399
1.74161
1.74195
1.74298
1.74332
1.74469
1.74708
1.74811
1.74845
1.74947
1.74981
1.75152
1.75357
1.75426
1.75597
1.75802
1.75836
1.75904
1.76075
1.76178
1.76315
1.76349
1.76417
1.76588
1.76622
1.76588
1.76861
1.76896
1.7693
1.77066
1.77237
1.77408
1.7734
1.77272
1.77477
1.77579
1.77716
1.7775
1.77818
1.77955
1.77955
1.77921
1.77955
1.77989
1.7816
1.78263
1.78331
1.78434
1.78468
1.78331
1.78468
1.78502
1.7857
1.78536
1.78536
1.78639
1.78707
1.78741
1.78741
1.78741
1.78605
1.78399
1.7857
1.78673
1.78707
1.78605
1.78605
1.78468
1.78536
1.78536
1.78536
1.78536
1.78399
1.78331
1.78297
1.78365
1.78399
1.78297
1.78229
1.7816
1.78092
1.78092
1.78126
1.78126
1.78092
1.78126
1.77989
1.78024
1.78058
1.77955
1.77921
1.77955
1.77887
1.77818
1.77818
1.77955
1.78024
1.77989
1.77989
1.77887
1.77818
1.77853
1.77955
1.77955
1.77955
1.78058
1.78058
1.78024
1.78024
1.78092
1.7816
1.78194
1.78297
1.78365
1.78399
1.78502
1.7857
1.78605
1.78673
1.78775
1.78741
1.78707
1.7881
1.78878
1.78844
1.78775
1.7881
1.78912
1.78946
1.78946
1.78912
1.78981
1.78912
1.78981
1.79049
1.79083
1.79049
1.79083
1.7922
1.7922
1.7922
1.7922
1.79322
1.79288
1.79357
1.79425
1.79357
1.79425
1.79493
1.7963
1.79733
1.79698
1.79767
1.79767
1.79835
1.79903
1.79903
1.79835
1.79938
1.79938
1.79972
1.80074
1.80108
1.80177
1.80108
1.80177
1.80177
1.80279
1.80348
1.80314
1.80382
1.80348
1.80416
1.80416
1.80416
1.80484
1.80416
1.80416
1.80553
1.80519
1.80519
1.80484
1.80314
1.80245
1.8045
1.80519
1.8045
1.8045
1.80382
1.80348
1.8045
1.80519
1.80484
1.80621
1.80553
1.80587
1.80553
1.80621
1.8069
1.80792
1.8069
1.80826
1.80895
1.80895
1.80895
1.80929
1.80997
1.811
1.811
1.81066
1.81066
1.80997
1.811
1.81066
1.81031
1.811
1.81168
1.811
1.81168
1.81202
1.81271
1.81305
1.81202
1.81202
1.81202
1.81134
1.81202
1.811
1.811
1.811
1.81236
1.81339
1.81476
1.8151
1.8151
1.81612
1.81783
1.81852
1.81715
1.81715
1.82023
1.82228
1.8233
1.82399
1.82467
1.82604
1.82672
1.82809
1.82945
1.83151
1.83219
1.83356
1.83561
1.83595
1.83766
1.83937
1.84142
1.8421
1.84278
1.84484
1.84586
1.84689
1.8486
1.8503
1.85099
1.85304
1.85406
1.85543
1.85748
1.85817
1.85987
1.86193
1.86363
1.86569
1.86739
1.86876
1.87013
1.8715
1.87184
1.87389
1.87594
1.87731
1.87902
1.88004
1.88209
1.88312
1.88414
1.88551
1.88619
1.88722
1.88756
1.88995
1.89098
1.89235
1.89303
1.89474
1.89611
1.89747
1.8985
1.89884
1.89884
1.90157
1.90123
1.9026
1.90362
1.90533
1.90636
1.90704
1.9067
1.90704
1.9067
1.90738
1.90909
1.90978
1.91149
1.9108
1.91149
1.91285
1.91354
1.91422
1.9149
1.9149
1.9149
1.9132
1.91217
1.9132
1.91456
1.91354
1.91251
1.91251
1.91217
1.91285
1.91251
1.91251
1.91251
1.91149
1.91183
1.91217
1.9132
1.9132
1.9132
1.91422
1.91388
1.9132
1.91285
1.91285
1.91354
1.9132
1.91388
1.91285
1.91388
1.91354
1.91285
1.91285
1.91285
1.91251
1.91217
1.91183
1.91149
1.91114
1.91114
1.91114
1.91114
1.91046
1.91046
1.90978
1.90978
1.90978
1.90875
1.90807
1.90738
1.9067
1.9067
1.9067
1.90533
1.90431
1.90465
1.90328
1.90226
1.90089
1.89987
1.90089
1.89918
1.8985
1.89679
1.89576
1.89474
1.89371
1.89235
1.892
1.89064
1.88893
1.8879
1.88722
1.88688
1.88551
1.88414
1.88414
1.88346
1.88175
1.88141
1.88004
1.88038
1.88004
1.88004
1.87936
1.87867
1.87594
1.87594
1.87457
1.87423
1.87457
1.87286
1.87047
1.86842
1.86705
1.86671
1.86603
1.86603
1.865
1.86329
1.86193
1.8609
1.85953
1.85919
1.85817
1.85782
1.85646
1.85543
1.85509
1.85475
1.85338
1.85338
1.85372
1.85338
1.8527
1.85304
1.85201
1.85099
1.84996
1.84996
1.84962
1.84962
1.84791
1.84825
1.84723
1.84689
1.84689
1.84654
1.8462
1.84552
1.84552
1.84449
1.84415
1.84347
1.84313
1.84278
1.84176
1.84108
1.83971
1.83902
1.838
1.83697
1.83595
1.83492
1.8339
1.83287
1.83151
1.83048
1.83048
1.83014
1.82911
1.82809
1.82706
1.82706
1.82706
1.82638
1.82569
1.82569
1.82501
1.82501
1.82501
1.82535
1.82604
1.82604
1.82638
1.82604
1.82535
1.82569
1.82535
1.82535
1.82535
1.82638
1.82638
1.82706
1.82706
1.82706
1.8274
1.82877
1.82945
1.82911
1.82911
1.83014
1.83048
1.83185
1.83219
1.83287
1.83356
1.8339
1.8339
1.83424
1.83458
1.83561
1.83629
1.83663
1.83732
1.83732
1.838
1.83868
1.83937
1.84005
1.84005
1.84073
1.84176
1.84142
1.84176
1.84278
1.84278
1.84313
1.84313
1.84313
1.84347
1.84347
1.84381
1.84381
1.84313
1.84278
1.84278
1.84313
1.84415
1.84449
1.84449
1.84484
1.84449
1.84484
1.8462
1.8462
1.84654
1.84723
1.84825
1.84894
1.84928
1.8486
1.84928
1.84996
1.84962
1.8503
1.84996
1.8503
1.8503
1.84928
1.84996
1.85065
1.85133
1.85235
1.8527
1.85235
1.85372
1.85441
1.85475
1.85577
1.85646
1.85714
1.85782
1.85782
1.85714
1.85782
1.85782
1.85817
1.85953
1.85953
1.86056
1.86056
1.86022
1.85987
1.86056
1.86056
1.86124
1.8609
1.86158
1.86193
1.86227
1.86329
1.86432
1.86363
1.86432
1.86432
1.86398
1.86432
1.86432
1.86466
1.86534
1.86569
1.86569
1.86603
1.86671
1.86739
1.86808
1.86842
1.86876
1.86876
1.86979
1.87081
1.87115
1.87184
1.87286
1.87389
1.87423
1.87491
1.8756
1.8756
1.87662
1.87765
1.87867
1.8797
1.88038
1.88072
1.88072
1.88141
1.88209
1.88278
1.88414
1.88551
1.88619
1.88688
1.88756
1.88927
1.89098
1.89132
1.89235
1.89235
1.89269
1.89371
1.89405
1.89474
1.89542
1.89508
1.89576
1.89679
1.89713
1.89781
1.89781
1.8985
1.89884
1.90021
1.90089
1.90157
1.90226
1.9026
1.90328
1.90362
1.90465
1.90533
1.90602
1.90636
1.90738
1.90773
1.90909
1.90978
1.91012
1.9108
1.91149
1.91217
1.91422
1.91525
1.91661
1.91798
1.91901
1.92003
1.92208
1.92345
1.92447
1.92687
1.92823
1.9296
1.93131
1.93234
1.93268
1.9337
1.93405
1.93405
1.9361
1.93678
1.93849
1.93986
1.94122
1.94259
1.94396
1.94532
1.94738
1.94908
1.95079
1.95216
1.95319
1.95489
1.95592
1.95763
1.95934
1.96036
1.96207
1.96412
1.96515
1.96686
1.96857
1.97062
1.97233
1.97404
1.97574
1.97711
1.97916
1.98087
1.98326
1.98497
1.98737
1.98942
1.99147
1.99318
1.99523
1.99659
1.99762
1.99762
1.99899
2.0007
2.00206
2.00343
2.00548
2.00651
2.00856
2.01061
2.013
2.01539
2.01676
2.01881
2.02052
2.02189
2.02462
2.02667
2.02838
2.03043
2.03146
2.03214
2.03453
2.03556
2.03659
2.03761
2.03864
2.03966
2.04137
2.04274
2.04376
2.04376
2.04445
2.04547
2.04684
2.04855
2.0506
2.05265
2.05402
2.0547
2.05607
2.05709
2.05743
2.05778
2.05709
2.05675
2.05607
2.05675
2.05709
2.05743
2.05743
2.05778
2.05846
2.06051
2.06017
2.05983
2.06085
2.06119
2.06188
2.06325
2.06393
2.06495
2.06598
2.06666
2.06666
2.06632
2.06666
2.06632
2.06632
2.06701
2.06769
2.06837
2.07145
2.07213
2.07042
2.07008
2.07008
2.07077
2.07145
2.0735
2.07589
2.07692
2.07726
2.07828
2.07863
2.07999
2.08034
2.07965
2.07897
2.07828
2.07794
2.0776
2.0776
2.07794
2.07863
2.07897
2.0817
2.08136
2.07897
2.0776
2.07692
2.07726
2.0776
2.07828
2.07794
2.07794
2.07828
2.07794
2.07726
2.07658
2.07589
2.07521
2.07555
2.07521
2.07555
2.07589
2.07623
2.07487
2.07316
2.07111
2.06974
2.0694
2.07008
2.06974
2.07008
2.07008
2.06974
2.06871
2.06837
2.06803
2.06701
2.06564
2.06393
2.06188
2.06051
2.0588
2.05846
2.05846
2.05846
2.06017
2.06085
2.05914
2.05675
2.05573
2.05504
2.05436
2.05504
2.05573
2.0547
2.05368
2.05333
2.05265
2.05162
2.05026
2.04923
2.04821
2.04786
2.04889
2.05026
2.04957
2.04718
2.04581
2.04445
2.0424
2.04171
2.04171
2.04171
2.04171
2.04274
2.04342
2.04308
2.0424
2.04205
2.04137
2.04
2.03829
2.03659
2.03522
2.03419
2.03453
2.03453
2.03488
2.03522
2.03659
2.03453
2.03146
2.03009
2.02975
2.02975
2.03009
2.03043
2.03009
2.02975
2.02907
2.0277
2.02701
2.02633
2.02531
2.02565
2.02531
2.02667
2.0277
2.02701
2.02701
2.02531
2.0236
2.02257
2.02155
2.02155
2.02223
2.02325
2.02462
2.02531
2.02462
2.02428
2.02428
2.02394
2.0236
2.02155
2.01915
2.01813
2.01779
2.01881
2.0195
2.01881
2.01915
2.0195
2.01779
2.01539
2.01437
2.01471
2.01471
2.01471
2.01608
2.01539
2.01539
2.01471
2.01471
2.01403
2.013
2.01232
2.01232
2.01266
2.01334
2.01471
2.01505
2.01437
2.01334
2.01198
2.01163
2.01095
2.01129
2.01163
2.01266
2.01403
2.01437
2.01471
2.01471
2.01471
2.01368
2.013
2.01095
2.0089
2.00787
2.00719
2.00787
2.00856
2.00719
2.00685
2.00787
2.00582
2.00343
2.00241
2.00138
2.00138
2.0007
2.00206
2.00104
1.99967
1.99967
2.00035
1.99899
1.99694
1.99625
1.99625
1.99625
1.99625
1.9983
1.99796
1.99557
1.99557
1.99454
1.99318
1.99249
1.99181
1.99249
1.99352
1.99454
1.9942
1.9942
1.99352
1.99318
1.99318
1.99249
1.99044
1.98839
1.98771
1.98771
1.98771
1.98771
1.98668
1.98634
1.98771
1.98668
1.98497
1.98497
1.98463
1.98463
1.98463
1.98634
1.98532
1.98429
1.98429
1.98429
1.98361
1.98292
1.98224
1.98292
1.98292
1.98292
1.98497
1.98258
1.98156
1.98121
1.97985
1.9795
1.97848
1.97882
1.97985
1.97985
1.98156
1.9819
1.98156
1.98156
1.98121
1.98087
1.97985
1.9778
1.97711
1.97574
1.97506
1.9754
1.9754
1.97643
1.97574
1.97745
1.97677
1.9754
1.97506
1.97506
1.97506
1.97472
1.97506
1.97506
1.97369
1.97438
1.97438
1.97438
1.97472
1.97438
1.97472
1.9754
1.9754
1.97677
1.97643
1.97609
1.97643
1.97711
1.97711
1.97745
1.97814
1.97882
1.98087
1.98224
1.98361
1.98326
1.98463
1.98429
1.98395
1.98429
1.98361
1.98292
1.98395
1.98361
1.98326
1.98429
1.98395
1.98497
1.98532
1.98566
1.98702
1.98566
1.98566
1.986
1.98668
1.98668
1.98771
1.98839
1.98907
1.98976
1.9901
1.99113
1.99215
1.99318
1.99386
1.99523
1.99659
1.99591
1.99728
2.00035
1.99933
2.00138
2.00138
2.00104
2.00206
2.00275
2.00411
2.00446
2.00651
2.00651
2.00753
2.00787
2.00856
2.0089
2.00924
2.00958
2.00992
2.01163
2.01198
2.01095
2.01266
2.01266
2.01539
2.01505
2.01574
2.01676
2.01779
2.01813
2.01984
2.0212
2.02257
2.0236
2.02462
2.02531
2.02667
2.02838
2.02872
2.03146
2.03248
2.03317
2.03453
2.03624
2.03829
2.03864
2.03966
2.03966
2.04205
2.04342
2.04376
2.04376
2.04479
2.04616
2.04718
2.04889
2.04992
2.05094
2.05128
2.05265
2.05265
2.05333
2.05402
2.0547
2.05538
2.05641
2.05641
2.05675
2.05743
2.05812
2.05914
2.06051
2.06085
2.06188
2.06256
2.06256
2.06325
2.06393
2.06427
2.0653
2.06666
2.06871
2.06871
2.06837
2.07042
2.07077
2.07213
2.07418
2.07521
2.07589
2.07726
2.07828
2.07897
2.07965
2.08034
2.08102
2.08204
2.0817
2.08273
2.08239
2.08375
2.0841
2.0841
2.08444
2.08512
2.08512
2.08512
2.0858
2.0858
2.08615
2.08478
2.08444
2.08512
2.0858
2.08444
2.08512
2.08444
2.0841
2.08478
2.08341
2.08341
2.08307
2.08239
2.08307
2.08375
2.08444
2.08478
2.08512
2.08546
2.08615
2.0858
2.08512
2.08615
2.08615
2.08649
2.08683
2.08649
2.08615
2.0858
2.0858
2.08649
2.08546
2.08512
2.08546
2.08546
2.08512
2.08478
2.08478
2.08444
2.08444
2.08375
2.08444
2.08341
2.08375
2.08375
2.08273
2.08239
2.08239
2.08102
2.08102
2.07999
2.07863
2.07794
2.0776
2.07726
2.0776
2.07726
2.07658
2.07555
2.07418
2.07316
2.0735
2.07247
2.07077
2.07008
2.06871
2.06837
2.06735
2.06598
2.06495
2.06325
2.06085
2.05949
2.05778
2.05709
2.05573
2.0547
2.05333
2.05128
2.05026
2.04889
2.04786
2.04684
2.04547
2.04445
2.0424
2.04069
2.03932
2.03761
2.03659
2.03488
2.03419
2.03385
2.03077
2.03009
2.02941
2.0277
2.02599
2.02462
2.02291
2.02155
2.0195
2.01813
2.01574
2.01403
2.01163
2.00992
2.00924
2.0089
2.00719
2.00548
2.00411
2.00241
2.00001
1.99865
1.99796
1.99694
1.99591
1.99489
1.99454
1.99352
1.99249
1.99147
1.99078
1.99044
1.98976
1.98942
1.98942
1.98873
1.98805
1.98771
1.98702
1.98668
1.986
1.98566
1.98634
1.98668
1.98463
1.98497
1.98532
1.98497
1.98429
1.98326
1.98121
1.98087
1.9819
1.98224
1.9819
1.98156
1.98053
1.97985
1.98053
1.98087
1.9795
1.97882
1.97814
1.97882
1.97882
1.97882
1.97916
1.97882
1.97814
1.97711
1.97643
1.97643
1.97643
1.97609
1.97506
1.97506
1.97369
1.97506
1.97472
1.97472
1.97472
1.97472
1.97369
1.97438
1.97472
1.9754
1.97574
1.9754
1.97574
1.97643
1.97609
1.97643
1.97643
1.97677
1.97711
1.97574
1.97677
1.97745
1.97711
1.97711
1.9778
1.97677
1.9778
1.97677
1.97711
1.97745
1.97711
1.97711
1.97677
1.97677
1.97677
1.97609
1.97574
1.97506
1.97574
1.97506
1.97369
1.97369
1.97404
1.97404
1.97335
1.97369
1.97335
1.97369
1.97369
1.97233
1.97233
1.97198
1.97233
1.9713
1.97028
1.96891
1.97028
1.96993
1.96959
1.96959
1.96925
1.96857
1.96823
1.96823
1.96754
1.96652
1.96686
1.96652
1.96583
1.96481
1.96583
1.96515
1.96583
1.96617
1.96686
1.96652
1.96754
1.9672
1.9672
1.96652
1.9672
1.96788
1.96857
1.96788
1.96823
1.96857
1.96857
1.96959
1.96857
1.96891
1.96925
1.96993
1.97028
1.97028
1.96857
1.97028
1.97028
1.96993
1.96959
1.97028
1.96925
1.97028
1.97028
1.96925
1.96993
1.96891
1.96857
1.96857
1.96823
1.96823
1.96788
1.96823
1.96754
1.96754
1.96652
1.96686
1.96754
1.96754
1.9672
1.96686
1.96686
1.96686
1.96686
1.96652
1.96617
1.96583
1.96481
1.96447
1.96481
1.96378
1.9631
1.96207
1.96105
1.96105
1.96105
1.96036
1.96002
1.96036
1.96071
1.96036
1.96139
1.96105
1.96036
1.96105
1.96105
1.96071
1.96139
1.96139
1.96071
1.96139
1.96207
1.96241
1.96241
1.96276
1.96276
1.96139
1.96241
1.96207
1.9631
1.9631
1.96344
1.96378
1.96344
1.96344
1.96378
1.96481
1.96481
1.96378
1.96378
1.96344
1.96447
1.96515
1.96515
1.96583
1.96583
1.96617
1.9672
1.96686
1.9672
1.96686
1.96652
1.96754
1.96788
1.96823
1.96823
1.96857
1.96891
1.96891
1.96857
1.96857
1.96891
1.96993
1.97028
1.97096
1.97096
1.97062
1.9713
1.97198
1.97301
1.97301
1.97301
1.97301
1.97301
1.97335
1.97335
1.97438
1.97438
1.97335
1.97369
1.97574
1.97609
1.97609
1.97609
1.97472
1.97677
1.97814
1.97814
1.9778
1.97882
1.9795
1.98019
1.98121
1.9819
1.98326
1.98361
1.98429
1.98566
1.986
1.98668
1.98737
1.98839
1.98873
1.98942
1.99044
1.99147
1.99147
1.99113
1.99386
1.99454
1.99489
1.99591
1.99694
1.99796
1.99865
1.99865
2.00035
2.00104
2.00241
2.00514
2.00651
2.00651
2.00719
2.00719
2.0089
2.00992
2.01163
2.01232
2.01232
2.01437
2.01539
2.01642
2.01813
2.01813
2.01881
2.02086
2.02189
2.02189
2.02394
2.02599
2.02701
2.02804
2.02804
2.03043
2.0318
2.03385
2.03556
2.0359
2.03693
2.03795
2.03932
2.04103
2.04137
2.0424
2.04342
2.04445
2.04513
2.04513
2.04547
2.04581
2.04718
2.04957
2.04889
2.05094
2.05299
2.05333
2.05402
2.05538
2.05641
2.05675
2.05812
2.05914
2.05983
2.06119
2.06085
2.06359
2.06461
2.06598
2.06735
2.06803
2.06803
2.06974
2.07042
2.07282
2.07316
2.07521
2.07521
2.07726
2.07658
2.0776
2.07863
2.07931
2.08068
2.08102
